# XDI/1.0 Demeter/0.9.26
# Demeter.output_filetype: multicolumn normalized mu(E)
# Element.symbol: V
# Element.edge: K
# Column.1: energy eV
# Column.2: JZP-4-merged
#------------------------
#  energy  JZP-4-merged
  5263.8492       0.12737417
  5273.8501       0.10231758
  5283.8503       0.81114410E-01
  5293.8492       0.61588687E-01
  5303.8493       0.47158833E-01
  5313.8497       0.35236642E-01
  5323.8502       0.25314870E-01
  5333.8506       0.18438437E-01
  5343.8501       0.12077480E-01
  5353.8485       0.74913272E-02
  5363.8505       0.41057239E-02
  5373.8509       0.19036466E-02
  5383.8485       0.33547266E-03
  5393.8492      -0.88518283E-03
  5403.8487      -0.13717278E-02
  5413.8507      -0.15911817E-02
  5423.8507      -0.10987635E-02
  5433.8494      -0.20468585E-03
  5434.1010      -0.41707016E-04
  5434.3505      -0.74219254E-05
  5434.5999      -0.13794172E-03
  5434.8491       0.74596520E-04
  5435.1008      -0.72435716E-04
  5435.3503      -0.17644568E-03
  5435.5998       0.27174097E-03
  5435.8493      -0.15697129E-03
  5436.1010       0.91237194E-04
  5436.3508       0.10522426E-03
  5436.6001       0.22203422E-03
  5436.8496       0.24355744E-03
  5437.0992       0.33563115E-03
  5437.3488       0.27251834E-03
  5437.6013       0.32621595E-03
  5437.8508       0.51993127E-03
  5438.1006       0.31263159E-03
  5438.3502       0.38898381E-03
  5438.5997       0.34104297E-03
  5438.8497       0.71117886E-03
  5439.0993       0.52069654E-03
  5439.3493       0.64850061E-03
  5439.5988       0.62797626E-03
  5439.8490       0.64764554E-03
  5440.0988       0.75008782E-03
  5440.3491       0.71377630E-03
  5440.5989       0.71128868E-03
  5440.8488       0.63286325E-03
  5441.1015       0.99449376E-03
  5441.3490       0.10605063E-02
  5441.5992       0.11034319E-02
  5441.8491       0.12153150E-02
  5442.0996       0.11611731E-02
  5442.3496       0.10641958E-02
  5442.5996       0.11309926E-02
  5442.8499       0.14741452E-02
  5443.1003       0.12445178E-02
  5443.3503       0.14717449E-02
  5443.6010       0.14108360E-02
  5443.8513       0.12844782E-02
  5444.0989       0.16211726E-02
  5444.3497       0.13805333E-02
  5444.5998       0.15237237E-02
  5444.8503       0.15386070E-02
  5445.1009       0.18384047E-02
  5445.3489       0.17104137E-02
  5445.5992       0.18211203E-02
  5445.8500       0.20499052E-02
  5446.1005       0.24345136E-02
  5446.3513       0.20463900E-02
  5446.5990       0.21995281E-02
  5446.8500       0.20694927E-02
  5447.1007       0.21394668E-02
  5447.3488       0.26118533E-02
  5447.5997       0.26087239E-02
  5447.8503       0.24609195E-02
  5448.0988       0.25642725E-02
  5448.3498       0.24221516E-02
  5448.6006       0.25371315E-02
  5448.8493       0.26450230E-02
  5449.1000       0.29001956E-02
  5449.3511       0.27025267E-02
  5449.5995       0.31233567E-02
  5449.8505       0.28600589E-02
  5450.0992       0.32291827E-02
  5450.3500       0.32088736E-02
  5450.6012       0.31056149E-02
  5450.8498       0.36135450E-02
  5451.1013       0.35004956E-02
  5451.3498       0.36851611E-02
  5451.6009       0.38396385E-02
  5451.8495       0.38811606E-02
  5452.1012       0.41256214E-02
  5452.3500       0.40804403E-02
  5452.5987       0.40263682E-02
  5452.8501       0.42361590E-02
  5453.0989       0.45363625E-02
  5453.3502       0.48021543E-02
  5453.5991       0.45030138E-02
  5453.8506       0.49594557E-02
  5454.0998       0.53033365E-02
  5454.3489       0.51551775E-02
  5454.6004       0.49120742E-02
  5454.8493       0.50961341E-02
  5455.1010       0.54605721E-02
  5455.3502       0.57251564E-02
  5455.5992       0.60001418E-02
  5455.8511       0.62306170E-02
  5456.1000       0.58970981E-02
  5456.3495       0.63953616E-02
  5456.6012       0.63618432E-02
  5456.8505       0.65745064E-02
  5457.0997       0.71347496E-02
  5457.3491       0.72233055E-02
  5457.6011       0.74109999E-02
  5457.8507       0.77600291E-02
  5458.0998       0.78010452E-02
  5458.3494       0.80880159E-02
  5458.5987       0.82985180E-02
  5458.8513       0.86553695E-02
  5459.1007       0.87778796E-02
  5459.3501       0.92913713E-02
  5459.5997       0.93650197E-02
  5459.8495       0.99400509E-02
  5460.0990       0.10172231E-01
  5460.3513       0.10330620E-01
  5460.6013       0.10813026E-01
  5460.8507       0.11341481E-01
  5461.1005       0.12145588E-01
  5461.3503       0.12424155E-01
  5461.6003       0.13122967E-01
  5461.8499       0.13289268E-01
  5462.0999       0.14198758E-01
  5462.3498       0.14800496E-01
  5462.6000       0.15251234E-01
  5462.8499       0.16246180E-01
  5463.0998       0.17186050E-01
  5463.3496       0.18069132E-01
  5463.5999       0.19060487E-01
  5463.8501       0.20429046E-01
  5464.1002       0.21923405E-01
  5464.3504       0.23593881E-01
  5464.6005       0.25032220E-01
  5464.8507       0.27476768E-01
  5465.1009       0.29547720E-01
  5465.3512       0.32443852E-01
  5465.5989       0.36927865E-01
  5465.8493       0.41575946E-01
  5466.0996       0.47120195E-01
  5466.3501       0.54864195E-01
  5466.6003       0.66197026E-01
  5466.8509       0.81240398E-01
  5467.0989       0.10396684
  5467.3494       0.13679905
  5467.5997       0.18073021
  5467.8501       0.24507544
  5468.1008       0.35005136
  5468.3490       0.49895559
  5468.5996       0.65875114
  5468.8502       0.72461012
  5469.1008       0.65273415
  5469.3490       0.55104052
  5469.5999       0.48306196
  5469.8504       0.41516438
  5470.0987       0.32597808
  5470.3496       0.24179332
  5470.6005       0.18204402
  5470.8489       0.14368564
  5471.0995       0.11778118
  5471.3507       0.10308220
  5471.5990       0.95387254E-01
  5471.8499       0.91934181E-01
  5472.1012       0.93517333E-01
  5472.3498       0.97436882E-01
  5472.6009       0.10429757
  5472.8494       0.11290046
  5473.1006       0.12352105
  5473.3491       0.13449277
  5473.6002       0.14666962
  5473.8488       0.15854493
  5474.1002       0.17175571
  5474.3488       0.18744141
  5474.6003       0.20498469
  5474.8489       0.22643179
  5475.1002       0.25124335
  5475.3489       0.27733772
  5475.6007       0.30017716
  5475.8495       0.31914370
  5476.1010       0.33621993
  5476.3499       0.35128088
  5476.5987       0.36647138
  5476.8505       0.38031479
  5477.0997       0.39252342
  5477.3513       0.40429170
  5477.6003       0.41772563
  5477.8492       0.42988369
  5478.1013       0.44482772
  5478.3503       0.45873770
  5478.5995       0.47272491
  5478.8511       0.49120434
  5479.1005       0.50928952
  5479.3496       0.53179087
  5479.5991       0.55935883
  5479.8510       0.59149209
  5480.1004       0.62744231
  5480.3498       0.66963255
  5480.5992       0.71466729
  5480.8511       0.76418391
  5481.1007       0.81580103
  5481.3504       0.86917222
  5481.6000       0.92311432
  5481.8493       0.97287290
  5482.1014        1.0203673
  5482.3487        1.0561529
  5482.6011        1.0861181
  5482.8505        1.1086619
  5483.1000        1.1222761
  5483.3499        1.1320221
  5483.5998        1.1387401
  5483.8497        1.1414318
  5484.0993        1.1396176
  5484.3490        1.1381366
  5484.5991        1.1331909
  5484.8491        1.1250521
  5485.0988        1.1142828
  5485.3489        1.1025584
  5485.5990        1.0921434
  5485.8489        1.0782789
  5486.0990        1.0688650
  5486.3491        1.0587789
  5486.5992        1.0508437
  5486.8490        1.0433624
  5487.0993        1.0385110
  5487.3494        1.0330431
  5487.5997        1.0337037
  5487.8502        1.0318430
  5488.1003        1.0328293
  5488.3507        1.0348535
  5488.6009        1.0368246
  5488.8512        1.0434005
  5489.0991        1.0533070
  5489.3498        1.0628649
  5489.6000        1.0738037
  5489.8505        1.0912933
  5490.1010        1.1053502
  5490.3491        1.1246872
  5490.5994        1.1414490
  5490.8503        1.1632110
  5491.1006        1.1835321
  5491.3488        1.2021008
  5491.5993        1.2169399
  5491.8499        1.2309978
  5492.1004        1.2416963
  5492.3490        1.2518929
  5492.5997        1.2572181
  5492.8506        1.2616482
  5493.0988        1.2670019
  5493.3496        1.2660771
  5493.6006        1.2665506
  5493.8490        1.2644464
  5494.0998        1.2650979
  5494.3510        1.2626940
  5494.5992        1.2596660
  5494.8502        1.2558234
  5495.1016        1.2514429
  5495.3501        1.2430164
  5495.6010        1.2372008
  5495.8495        1.2285302
  5496.1007        1.2200916
  5496.3495        1.2097170
  5496.6007        1.1989269
  5496.8492        1.1892529
  5497.1006        1.1795568
  5497.3494        1.1690754
  5497.6006        1.1603893
  5497.8491        1.1477072
  5498.1009        1.1414142
  5498.3496        1.1352982
  5498.6013        1.1272946
  5498.8502        1.1212208
  5499.0991        1.1146086
  5499.3506        1.1127375
  5499.5995        1.1056488
  5499.8511        1.1030786
  5500.0999        1.0991540
  5500.3492        1.0944947
  5500.6012        1.0894560
  5500.8500        1.0874645
  5501.0992        1.0828020
  5501.3510        1.0814821
  5501.6000        1.0760062
  5501.8494        1.0752181
  5502.0987        1.0707524
  5502.3507        1.0682290
  5502.5999        1.0642905
  5502.8493        1.0609054
  5503.1011        1.0571893
  5503.3508        1.0555451
  5503.5999        1.0545785
  5503.8494        1.0504415
  5505.0945        1.0381922
  5506.3561        1.0304394
  5507.6398        1.0219384
  5508.9402        1.0095111
  5510.2626       0.99561270
  5511.6018       0.98439138
  5512.9604       0.97572282
  5514.3357       0.96606673
  5515.7336       0.94952275
  5517.1486       0.94140584
  5518.5830       0.94279763
  5520.0367       0.94813856
  5521.5099       0.95480819
  5523.0033       0.96495502
  5524.5140       0.97553207
  5526.0439       0.98096914
  5527.5915       0.98541692
  5529.1616       0.98535529
  5530.7486       0.98344737
  5532.3533       0.98509158
  5533.9782       0.98720510
  5535.6225       0.98866764
  5537.2869       0.99242929
  5538.9692       0.99730946
  5540.6715       0.99995288
  5542.3914        1.0044216
  5544.1313        1.0082690
  5545.8888        1.0166197
  5547.6668        1.0241688
  5549.4653        1.0295358
  5551.2814        1.0332169
  5553.1156        1.0355263
  5554.9699        1.0340760
  5556.8422        1.0338784
  5558.7354        1.0293887
  5560.6461        1.0241629
  5562.5749        1.0176159
  5564.5244        1.0114538
  5566.4925        1.0038521
  5568.4810       0.99879734
  5570.4877       0.99210662
  5572.5130       0.99062674
  5574.5564       0.98488682
  5576.6209       0.98242336
  5578.7036       0.98227661
  5580.8047       0.98136416
  5582.9244       0.97780538
  5585.0655       0.97700633
  5587.2225       0.97648702
  5589.4008       0.97684772
  5591.5979       0.97551560
  5593.8133       0.97393090
  5596.0477       0.97409314
  5598.3041       0.97222163
  5600.5763       0.97246540
  5602.8676       0.97342939
  5605.1805       0.97906529
  5607.5098       0.97801193
  5609.8578       0.98345836
  5612.2287       0.98698134
  5614.6154       0.99287546
  5617.0218       0.99681874
  5619.4471        1.0013946
  5621.8918        1.0056095
  5624.3562        1.0117224
  5626.8373        1.0180138
  5629.3407        1.0194483
  5631.8607        1.0215066
  5634.4007        1.0226843
  5636.9606        1.0253457
  5639.5372        1.0255097
  5642.1339        1.0233125
  5644.7501        1.0240782
  5647.3868        1.0213865
  5650.0404        1.0206940
  5652.7143        1.0186932
  5655.4058        1.0160876
  5658.1170        1.0125135
  5660.8489        1.0115861
  5663.5984        1.0053493
  5666.3653        1.0024098
  5669.1551       0.99872947
  5671.9606       0.99450234
  5674.7862       0.99114425
  5677.6298       0.99052529
  5680.4940       0.98857744
  5683.3767       0.98664467
  5686.2795       0.98693246
  5689.2008       0.98829500
  5692.1404       0.98949067
  5695.1007       0.98723566
  5698.0767       0.99141814
  5701.0742       0.99570779
  5704.0924       0.99981311
  5707.7510        1.0047951
